=~=~=~=~=~=~=~=~=~=~=~= PuTTY log 2013.10.16 09:43:55 =~=~=~=~=~=~=~=~=~=~=~=

PHOTO RESEARCH - The Light Measurement People
---------------------------------------------
 Instrument       : PR-650         Average Cycles   : 3   
 Serial Number    : 60063509       Integration Time : 199 msec
 Measurement Date : 2013/09/03     Frequency        : DC
 Measurement Time : 00:59:16       File Num/Protect : 15  U
 Accessory        : MS-7

P H O T O M E T R I C   D A T A
-------------------------------
 Luminance      = 1.278e+02 footLamberts
                = 4.378e+02 candelas per square meter

C O L O R I M E T R I C   D A T A
---------------------------------
 CIE 1931:            X = 7.658e+02      x = .632 
( 2 degree observer)  Y = 4.378e+02      y = .361 
                      Z = 8.199e+00      z = 0.007 

 CIE/UCS 1960:  u = .416           v = .357 
 CIE/UCS 1976:  u'= .416           v'= .536 

 Correlated Color Temperature = not applicable.

R A D I O M E T R I C   D A T A
-------------------------------
 Integrated Radiance         : 1.642e+00 w/sr/m2
 Peak Wavelength  : 600 nm
 Peak Radiance               : 2.554e-02 w/sr/m2

S P E C T R A L   D A T A
-------------------------
 Corrected Spectral Radiance (w/sr/m2)

380 2.151e-05  460 1.144e-04  540 1.758e-04  620 1.734e-02  700 6.487e-04  
384 2.088e-05  464 1.149e-04  544 2.581e-04  624 1.648e-02  704 4.834e-04  
388 1.103e-05  468 1.197e-04  548 3.567e-04  628 1.574e-02  708 3.831e-04  
392 1.475e-05  472 1.228e-04  552 3.820e-04  632 1.508e-02  712 3.000e-04  
396 1.096e-05  476 1.142e-04  556 3.566e-04  636 1.448e-02  716 2.377e-04  
400 9.937e-06  480 9.438e-05  560 3.590e-04  640 1.385e-02  720 1.802e-04  
404 6.628e-06  484 8.733e-05  564 4.461e-04  644 1.323e-02  724 1.607e-04  
408 7.194e-06  488 7.798e-05  568 7.973e-04  648 1.270e-02  728 1.347e-04  
412 5.795e-06  492 6.509e-05  572 1.771e-03  652 1.237e-02  732 1.353e-04  
416 7.294e-06  496 6.399e-05  576 3.682e-03  656 1.204e-02  736 1.282e-04  
420 7.267e-06  500 6.457e-05  580 6.498e-03  660 1.178e-02  740 1.307e-04  
424 1.465e-05  504 6.604e-05  584 1.026e-02  664 1.126e-02  744 1.348e-04  
428 5.709e-05  508 6.903e-05  588 1.583e-02  668 1.038e-02  748 1.199e-04  
432 1.294e-04  512 6.753e-05  592 2.107e-02  672 9.022e-03  752 9.625e-05  
436 1.818e-04  516 6.356e-05  596 2.472e-02  676 7.265e-03  756 1.302e-04  
440 1.812e-04  520 6.145e-05  600 2.554e-02  680 5.284e-03  760 6.832e-05  
444 1.488e-04  524 6.853e-05  604 2.420e-02  684 3.518e-03  764 1.162e-04  
448 1.058e-04  528 7.880e-05  608 2.200e-02  688 2.304e-03  768 8.308e-05  
452 9.655e-05  532 9.571e-05  612 1.995e-02  692 1.511e-03  772 6.802e-05  
456 1.061e-04  536 1.256e-04  616 1.841e-02  696 9.648e-04  776 1.074e-04  
                                                            780 9.479e-05

PHOTO RESEARCH - The Light Measurement People
---------------------------------------------
 Instrument       : PR-650         Average Cycles   : 3   
 Serial Number    : 60063509       Integration Time : 39 msec
 Measurement Date : 2013/09/03     Frequency        : DC
 Measurement Time : 01:00:16       File Num/Protect : 16  U
 Accessory        : MS-7

P H O T O M E T R I C   D A T A
-------------------------------
 Luminance      = 6.761e+02 footLamberts
                = 2.316e+03 candelas per square meter

C O L O R I M E T R I C   D A T A
---------------------------------
 CIE 1931:            X = 1.193e+03      x = .330 
( 2 degree observer)  Y = 2.316e+03      y = .642 
                      Z = 1.006e+02      z = 0.028 

 CIE/UCS 1960:  u = .132           v = .384 
 CIE/UCS 1976:  u'= .132           v'= .575 

 Correlated Color Temperature = not applicable.

R A D I O M E T R I C   D A T A
-------------------------------
 Integrated Radiance         : 3.808e+00 w/sr/m2
 Peak Wavelength  : 552 nm
 Peak Radiance               : 9.831e-02 w/sr/m2

S P E C T R A L   D A T A
-------------------------
 Corrected Spectral Radiance (w/sr/m2)

380 8.288e-05  460 4.194e-04  540 4.690e-02  620 2.469e-04  700 1.280e-04  
384 1.450e-04  464 5.621e-04  544 6.880e-02  624 2.546e-04  704 1.142e-04  
388 5.199e-05  468 6.393e-04  548 9.422e-02  628 2.335e-04  708 1.103e-04  
392 5.053e-05  472 6.424e-04  552 9.831e-02  632 1.970e-04  712 8.549e-05  
396 5.485e-05  476 6.043e-04  556 8.300e-02  636 2.175e-04  716 1.264e-04  
400 3.313e-05  480 6.117e-04  560 6.599e-02  640 2.131e-04  720 1.344e-04  
404 6.141e-05  484 7.941e-04  564 5.516e-02  644 1.895e-04  724 1.603e-04  
408 6.366e-05  488 1.326e-03  568 5.151e-02  648 1.744e-04  728 1.835e-04  
412 3.156e-05  492 2.282e-03  572 5.505e-02  652 1.596e-04  732 2.157e-04  
416 5.377e-05  496 4.375e-03  576 5.012e-02  656 1.394e-04  736 1.766e-04  
420 5.552e-05  500 8.142e-03  580 3.062e-02  660 1.918e-04  740 1.434e-04  
424 7.818e-05  504 1.229e-02  584 1.215e-02  664 1.208e-04  744 1.924e-04  
428 1.863e-04  508 1.606e-02  588 3.336e-03  668 1.301e-04  748 1.505e-04  
432 3.233e-04  512 1.886e-02  592 1.137e-03  672 1.473e-04  752 1.784e-04  
436 4.061e-04  516 2.068e-02  596 5.211e-04  676 1.331e-04  756 1.668e-04  
440 4.973e-04  520 2.187e-02  600 3.579e-04  680 1.171e-04  760 3.328e-04  
444 4.802e-04  524 2.268e-02  604 2.887e-04  684 1.127e-04  764 2.084e-04  
448 3.663e-04  528 2.463e-02  608 2.619e-04  688 1.350e-04  768 2.710e-04  
452 3.130e-04  532 2.893e-02  612 2.786e-04  692 1.190e-04  772 4.035e-04  
456 3.117e-04  536 3.593e-02  616 2.643e-04  696 1.324e-04  776 3.896e-04  
                                                            780 4.740e-04

PHOTO RESEARCH - The Light Measurement People
---------------------------------------------
 Instrument       : PR-650         Average Cycles   : 3   
 Serial Number    : 60063509       Integration Time : 49 msec
 Measurement Date : 2013/09/03     Frequency        : DC
 Measurement Time : 01:01:04       File Num/Protect : 17  U
 Accessory        : MS-7

P H O T O M E T R I C   D A T A
-------------------------------
 Luminance      = 8.655e+01 footLamberts
                = 2.965e+02 candelas per square meter

C O L O R I M E T R I C   D A T A
---------------------------------
 CIE 1931:            X = 5.623e+02      x = .139 
( 2 degree observer)  Y = 2.965e+02      y = 0.073 
                      Z = 3.200e+03      z = .788 

 CIE/UCS 1960:  u = .154           v = .122 
 CIE/UCS 1976:  u'= .154           v'= .183 

 Correlated Color Temperature = not applicable.

R A D I O M E T R I C   D A T A
-------------------------------
 Integrated Radiance         : 3.807e+00 w/sr/m2
 Peak Wavelength  : 440 nm
 Peak Radiance               : 7.128e-02 w/sr/m2

S P E C T R A L   D A T A
-------------------------
 Corrected Spectral Radiance (w/sr/m2)

380 2.308e-04  460 4.561e-02  540 4.139e-04  620 4.938e-05  700 7.477e-05  
384 1.971e-04  464 4.247e-02  544 4.285e-04  624 9.266e-05  704 5.886e-05  
388 2.572e-04  468 4.307e-02  548 4.587e-04  628 5.188e-05  708 7.266e-05  
392 1.958e-04  472 4.439e-02  552 4.183e-04  632 9.089e-05  712 6.162e-05  
396 2.071e-04  476 4.357e-02  556 3.446e-04  636 6.482e-05  716 1.300e-04  
400 2.160e-04  480 4.232e-02  560 2.579e-04  640 4.543e-05  720 1.365e-04  
404 2.247e-04  484 4.368e-02  564 2.147e-04  644 9.998e-05  724 9.134e-05  
408 2.400e-04  488 4.463e-02  568 1.883e-04  648 6.975e-05  728 1.378e-04  
412 2.630e-04  492 4.091e-02  572 1.546e-04  652 5.947e-05  732 1.726e-04  
416 3.000e-04  496 3.368e-02  576 1.621e-04  656 7.383e-05  736 1.534e-04  
420 6.993e-04  500 2.640e-02  580 1.255e-04  660 5.522e-05  740 1.650e-04  
424 3.935e-03  504 1.934e-02  584 1.003e-04  664 6.880e-05  744 1.412e-04  
428 1.741e-02  508 1.303e-02  588 8.838e-05  668 6.044e-05  748 1.943e-04  
432 4.195e-02  512 7.935e-03  592 6.749e-05  672 5.629e-05  752 2.235e-04  
436 6.243e-02  516 4.407e-03  596 7.794e-05  676 8.589e-05  756 1.922e-04  
440 7.128e-02  520 2.320e-03  600 9.126e-05  680 4.796e-05  760 2.036e-04  
444 7.027e-02  524 1.243e-03  604 7.510e-05  684 6.908e-05  764 3.303e-04  
448 6.299e-02  528 8.188e-04  608 7.118e-05  688 5.852e-05  768 3.938e-04  
452 5.677e-02  532 6.241e-04  612 5.145e-05  692 6.434e-05  772 3.908e-04  
456 5.081e-02  536 4.693e-04  616 4.766e-05  696 6.523e-05  776 6.857e-04  
                                                            780 6.734e-04

PHOTO RESEARCH - The Light Measurement People
---------------------------------------------
 Instrument       : PR-650         Average Cycles   : 3   
 Serial Number    : 60063509       Integration Time : 39 msec
 Measurement Date : 2013/09/03     Frequency        : DC
 Measurement Time : 01:01:56       File Num/Protect : 18  U
 Accessory        : MS-7

P H O T O M E T R I C   D A T A
-------------------------------
 Luminance      = 8.809e+02 footLamberts
                = 3.018e+03 candelas per square meter

C O L O R I M E T R I C   D A T A
---------------------------------
 CIE 1931:            X = 2.497e+03      x = .284 
( 2 degree observer)  Y = 3.018e+03      y = .343 
                      Z = 3.281e+03      z = .373 

 CIE/UCS 1960:  u = .173           v = .314 
 CIE/UCS 1976:  u'= .173           v'= .471 

 Correlated Color Temperature = not applicable.

R A D I O M E T R I C   D A T A
-------------------------------
 Integrated Radiance         : 9.157e+00 w/sr/m2
 Peak Wavelength  : 552 nm
 Peak Radiance               : 9.802e-02 w/sr/m2

S P E C T R A L   D A T A
-------------------------
 Corrected Spectral Radiance (w/sr/m2)

380 3.043e-04  460 4.564e-02  540 4.691e-02  620 1.757e-02  700 7.672e-04  
384 2.594e-04  464 4.261e-02  544 6.868e-02  624 1.671e-02  704 6.344e-04  
388 2.980e-04  468 4.328e-02  548 9.400e-02  628 1.598e-02  708 4.574e-04  
392 2.409e-04  472 4.460e-02  552 9.802e-02  632 1.532e-02  712 3.761e-04  
396 2.741e-04  476 4.365e-02  556 8.270e-02  636 1.471e-02  716 3.776e-04  
400 2.596e-04  480 4.244e-02  560 6.573e-02  640 1.408e-02  720 3.068e-04  
404 2.762e-04  484 4.401e-02  564 5.507e-02  644 1.342e-02  724 3.074e-04  
408 2.948e-04  488 4.542e-02  568 5.178e-02  648 1.290e-02  728 2.782e-04  
412 3.050e-04  492 4.274e-02  572 5.630e-02  652 1.259e-02  732 2.342e-04  
416 3.361e-04  496 3.766e-02  576 5.343e-02  656 1.221e-02  736 3.886e-04  
420 7.390e-04  500 3.433e-02  580 3.692e-02  660 1.195e-02  740 3.740e-04  
424 4.044e-03  504 3.150e-02  584 2.227e-02  664 1.140e-02  744 4.401e-04  
428 1.757e-02  508 2.900e-02  588 1.900e-02  668 1.054e-02  748 2.878e-04  
432 4.222e-02  512 2.673e-02  592 2.201e-02  672 9.185e-03  752 2.255e-04  
436 6.279e-02  516 2.500e-02  596 2.504e-02  676 7.389e-03  756 4.286e-04  
440 7.161e-02  520 2.407e-02  600 2.570e-02  680 5.478e-03  760 4.971e-04  
444 7.048e-02  524 2.379e-02  604 2.435e-02  684 3.648e-03  764 5.737e-04  
448 6.306e-02  528 2.523e-02  608 2.222e-02  688 2.437e-03  768 6.006e-04  
452 5.675e-02  532 2.932e-02  612 2.017e-02  692 1.594e-03  772 6.786e-04  
456 5.074e-02  536 3.610e-02  616 1.864e-02  696 1.049e-03  776 9.611e-04  
                                                            780 9.924e-04

PHOTO RESEARCH - The Light Measurement People
---------------------------------------------
 Instrument       : PR-650         Average Cycles   : 3   
 Serial Number    : 60063509       Integration Time : 239 msec
 Measurement Date : 2013/09/03     Frequency        : DC
 Measurement Time : 01:02:55       File Num/Protect : 19  U
 Accessory        : MS-7

P H O T O M E T R I C   D A T A
-------------------------------
 Luminance      = 1.060e+02 footLamberts
                = 3.631e+02 candelas per square meter

C O L O R I M E T R I C   D A T A
---------------------------------
 CIE 1931:            X = 6.317e+02      x = .630 
( 2 degree observer)  Y = 3.631e+02      y = .362 
                      Z = 8.043e+00      z = 0.008 

 CIE/UCS 1960:  u = .414           v = .357 
 CIE/UCS 1976:  u'= .414           v'= .536 

 Correlated Color Temperature = not applicable.

R A D I O M E T R I C   D A T A
-------------------------------
 Integrated Radiance         : 1.345e+00 w/sr/m2
 Peak Wavelength  : 600 nm
 Peak Radiance               : 2.107e-02 w/sr/m2

S P E C T R A L   D A T A
-------------------------
 Corrected Spectral Radiance (w/sr/m2)

380 1.170e-05  460 1.087e-04  540 1.729e-04  620 1.425e-02  700 5.075e-04  
384 1.032e-05  464 1.140e-04  544 2.528e-04  624 1.345e-02  704 3.879e-04  
388 1.492e-05  468 1.236e-04  548 3.466e-04  628 1.271e-02  708 2.915e-04  
392 1.332e-05  472 1.221e-04  552 3.650e-04  632 1.210e-02  712 2.199e-04  
396 9.635e-06  476 1.134e-04  556 3.364e-04  636 1.159e-02  716 1.773e-04  
400 9.322e-06  480 9.709e-05  560 3.259e-04  640 1.110e-02  720 1.401e-04  
404 8.777e-06  484 8.597e-05  564 3.941e-04  644 1.066e-02  724 1.149e-04  
408 7.423e-06  488 7.468e-05  568 6.949e-04  648 1.030e-02  728 1.084e-04  
412 4.613e-06  492 6.379e-05  572 1.514e-03  652 1.007e-02  732 1.085e-04  
416 4.296e-06  496 5.827e-05  576 3.127e-03  656 9.789e-03  736 1.144e-04  
420 8.573e-06  500 5.727e-05  580 5.502e-03  660 9.530e-03  740 1.159e-04  
424 2.096e-05  504 5.993e-05  584 8.666e-03  664 9.024e-03  744 1.286e-04  
428 5.748e-05  508 6.225e-05  588 1.330e-02  668 8.245e-03  748 9.614e-05  
432 1.273e-04  512 6.115e-05  592 1.759e-02  672 7.116e-03  752 8.862e-05  
436 1.781e-04  516 6.040e-05  596 2.050e-02  676 5.705e-03  756 1.240e-04  
440 1.820e-04  520 6.233e-05  600 2.107e-02  680 4.155e-03  760 1.152e-04  
444 1.453e-04  524 6.419e-05  604 1.992e-02  684 2.771e-03  764 8.529e-05  
448 1.069e-04  528 7.653e-05  608 1.813e-02  688 1.835e-03  768 5.643e-05  
452 9.797e-05  532 9.407e-05  612 1.647e-02  692 1.193e-03  772 9.530e-05  
456 1.009e-04  536 1.233e-04  616 1.519e-02  696 7.689e-04  776 7.937e-05  
                                                            780 7.186e-05

PHOTO RESEARCH - The Light Measurement People
---------------------------------------------
 Instrument       : PR-650         Average Cycles   : 3   
 Serial Number    : 60063509       Integration Time : 49 msec
 Measurement Date : 2013/09/03     Frequency        : DC
 Measurement Time : 01:03:26       File Num/Protect : 20  U
 Accessory        : MS-7

P H O T O M E T R I C   D A T A
-------------------------------
 Luminance      = 4.708e+02 footLamberts
                = 1.613e+03 candelas per square meter

C O L O R I M E T R I C   D A T A
---------------------------------
 CIE 1931:            X = 8.221e+02      x = .327 
( 2 degree observer)  Y = 1.613e+03      y = .642 
                      Z = 7.662e+01      z = 0.031 

 CIE/UCS 1960:  u = .130           v = .383 
 CIE/UCS 1976:  u'= .130           v'= .575 

 Correlated Color Temperature = not applicable.

R A D I O M E T R I C   D A T A
-------------------------------
 Integrated Radiance         : 2.666e+00 w/sr/m2
 Peak Wavelength  : 552 nm
 Peak Radiance               : 6.852e-02 w/sr/m2

S P E C T R A L   D A T A
-------------------------
 Corrected Spectral Radiance (w/sr/m2)

380 6.985e-05  460 3.667e-04  540 3.301e-02  620 1.753e-04  700 6.579e-05  
384 4.442e-05  464 4.388e-04  544 4.834e-02  624 1.659e-04  704 6.879e-05  
388 5.049e-05  468 4.963e-04  548 6.592e-02  628 1.267e-04  708 6.142e-05  
392 3.972e-05  472 5.361e-04  552 6.852e-02  632 1.485e-04  712 7.290e-05  
396 2.678e-05  476 4.468e-04  556 5.763e-02  636 1.597e-04  716 8.091e-05  
400 3.313e-05  480 4.588e-04  560 4.567e-02  640 1.645e-04  720 8.603e-05  
404 3.083e-05  484 5.954e-04  564 3.801e-02  644 1.583e-04  724 7.731e-05  
408 4.016e-05  488 9.825e-04  568 3.516e-02  648 1.133e-04  728 1.315e-04  
412 3.798e-05  492 1.747e-03  572 3.721e-02  652 1.039e-04  732 1.142e-04  
416 3.143e-05  496 3.368e-03  576 3.363e-02  656 9.365e-05  736 1.938e-04  
420 5.732e-05  500 6.248e-03  580 2.041e-02  660 1.013e-04  740 1.230e-04  
424 8.008e-05  504 9.244e-03  584 8.066e-03  664 1.378e-04  744 1.077e-04  
428 1.455e-04  508 1.183e-02  588 2.245e-03  668 8.392e-05  748 1.479e-04  
432 2.812e-04  512 1.382e-02  592 8.031e-04  672 9.904e-05  752 1.427e-04  
436 3.894e-04  516 1.517e-02  596 4.033e-04  676 8.976e-05  756 1.334e-04  
440 4.455e-04  520 1.603e-02  600 2.665e-04  680 1.441e-04  760 2.031e-04  
444 4.247e-04  524 1.643e-02  604 2.367e-04  684 6.257e-05  764 2.984e-04  
448 3.238e-04  528 1.757e-02  608 1.854e-04  688 9.237e-05  768 2.782e-04  
452 2.807e-04  532 2.044e-02  612 1.885e-04  692 8.551e-05  772 2.388e-04  
456 2.861e-04  536 2.530e-02  616 1.922e-04  696 7.728e-05  776 3.662e-04  
                                                            780 3.792e-04

PHOTO RESEARCH - The Light Measurement People
---------------------------------------------
 Instrument       : PR-650         Average Cycles   : 3   
 Serial Number    : 60063509       Integration Time : 59 msec
 Measurement Date : 2013/09/03     Frequency        : DC
 Measurement Time : 01:04:07       File Num/Protect : 21  U
 Accessory        : MS-7

P H O T O M E T R I C   D A T A
-------------------------------
 Luminance      = 7.305e+01 footLamberts
                = 2.503e+02 candelas per square meter

C O L O R I M E T R I C   D A T A
---------------------------------
 CIE 1931:            X = 5.172e+02      x = .140 
( 2 degree observer)  Y = 2.503e+02      y = 0.068 
                      Z = 2.918e+03      z = .792 

 CIE/UCS 1960:  u = .159           v = .115 
 CIE/UCS 1976:  u'= .159           v'= .173 

 Correlated Color Temperature = not applicable.

R A D I O M E T R I C   D A T A
-------------------------------
 Integrated Radiance         : 3.393e+00 w/sr/m2
 Peak Wavelength  : 440 nm
 Peak Radiance               : 6.655e-02 w/sr/m2

S P E C T R A L   D A T A
-------------------------
 Corrected Spectral Radiance (w/sr/m2)

380 2.455e-04  460 4.069e-02  540 3.746e-04  620 5.486e-05  700 6.104e-05  
384 2.012e-04  464 3.826e-02  544 3.897e-04  624 5.658e-05  704 6.783e-05  
388 2.133e-04  468 3.854e-02  548 4.399e-04  628 5.756e-05  708 1.203e-04  
392 2.045e-04  472 3.873e-02  552 4.066e-04  632 6.593e-05  712 7.121e-05  
396 1.888e-04  476 3.733e-02  556 3.313e-04  636 6.563e-05  716 5.416e-05  
400 2.131e-04  480 3.613e-02  560 2.581e-04  640 7.949e-05  720 7.169e-05  
404 2.326e-04  484 3.722e-02  564 2.095e-04  644 7.797e-05  724 6.442e-05  
408 2.295e-04  488 3.750e-02  568 1.629e-04  648 7.136e-05  728 6.211e-05  
412 2.403e-04  492 3.364e-02  572 1.585e-04  652 6.045e-05  732 1.170e-04  
416 2.787e-04  496 2.714e-02  576 1.354e-04  656 5.120e-05  736 1.110e-04  
420 6.539e-04  500 2.108e-02  580 1.165e-04  660 5.926e-05  740 1.306e-04  
424 3.911e-03  504 1.549e-02  584 1.009e-04  664 4.278e-05  744 9.106e-05  
428 1.738e-02  508 1.043e-02  588 5.982e-05  668 6.667e-05  748 1.619e-04  
432 4.117e-02  512 6.306e-03  592 7.727e-05  672 6.690e-05  752 1.705e-04  
436 5.938e-02  516 3.467e-03  596 7.147e-05  676 6.089e-05  756 1.482e-04  
440 6.655e-02  520 1.816e-03  600 5.385e-05  680 4.852e-05  760 2.432e-04  
444 6.594e-02  524 9.900e-04  604 6.614e-05  684 5.995e-05  764 2.803e-04  
448 5.897e-02  528 6.414e-04  608 4.859e-05  688 5.205e-05  768 1.776e-04  
452 5.181e-02  532 4.740e-04  612 4.626e-05  692 5.877e-05  772 5.080e-04  
456 4.530e-02  536 3.970e-04  616 5.990e-05  696 5.186e-05  776 5.723e-04  
                                                            780 7.177e-04

PHOTO RESEARCH - The Light Measurement People
---------------------------------------------
 Instrument       : PR-650         Average Cycles   : 3   
 Serial Number    : 60063509       Integration Time : 59 msec
